E(eV)	f1	f2
0.500000	-9999.	0.186208
0.507932	-9999.	0.189099
0.515990	-9999.	0.192024
0.524176	-9999.	0.194995
0.532492	-9999.	0.198011
0.540939	-9999.	0.201075
0.549521	-9999.	0.204185
0.558238	-9999.	0.207344
0.567095	-9999.	0.210552
0.576091	-9999.	0.213809
0.585230	-9999.	0.217117
0.594515	-9999.	0.220476
0.603946	-9999.	0.223886
0.613527	-9999.	0.227350
0.623260	-9999.	0.230867
0.633148	-9999.	0.234439
0.643192	-9999.	0.238066
0.653396	-9999.	0.241748
0.663762	-9999.	0.245488
0.674292	-9999.	0.249286
0.684989	-9999.	0.253143
0.695856	-9999.	0.257059
0.706895	-9999.	0.261036
0.718109	-9999.	0.265074
0.729502	-9999.	0.269175
0.741075	-9999.	0.273339
0.752831	-9999.	0.277567
0.764775	-9999.	0.281861
0.776907	-9999.	0.286222
0.789232	-9999.	0.290650
0.801753	-9999.	0.295146
0.814472	-9999.	0.299712
0.827393	-9999.	0.304349
0.840519	-9999.	0.309057
0.853853	-9999.	0.313839
0.867399	-9999.	0.318694
0.881159	-9999.	0.323624
0.895138	-9999.	0.328631
0.909339	-9999.	0.333715
0.923765	-9999.	0.338877
0.938420	-9999.	0.344120
0.953307	-9999.	0.349443
0.968431	-9999.	0.354849
0.983794	-9999.	0.360339
0.999401	-9999.	0.365913
1.01526	-9999.	0.371993
1.03136	-9999.	0.378192
1.04772	-9999.	0.384493
1.06435	-9999.	0.390899
1.08123	-9999.	0.397412
1.09838	-9999.	0.404034
1.11581	-9999.	0.410766
1.13351	-9999.	0.417610
1.15149	-9999.	0.424568
1.16976	-9999.	0.431642
1.18832	-9999.	0.438834
1.20717	-9999.	0.446145
1.22632	-9999.	0.453579
1.24577	-9999.	0.461136
1.26554	-9999.	0.467946
1.28561	-9999.	0.474614
1.30601	-9999.	0.481377
1.32673	-9999.	0.488236
1.34778	-9999.	0.495192
1.36916	-9999.	0.502248
1.39088	-9999.	0.509404
1.41294	-9999.	0.516663
1.43536	-9999.	0.524025
1.45813	-9999.	0.531492
1.48126	-9999.	0.539065
1.50476	-9999.	0.546543
1.52863	-9999.	0.553313
1.55288	-9999.	0.560168
1.57752	-9999.	0.567107
1.60254	-9999.	0.574132
1.62797	-9999.	0.581244
1.65379	-9999.	0.588444
1.68003	-9999.	0.595733
1.70668	-9999.	0.603113
1.73376	-9999.	0.610585
1.76126	-9999.	0.618295
1.78920	-9999.	0.626319
1.81759	-9999.	0.634447
1.84642	-9999.	0.642682
1.87572	-9999.	0.651023
1.90547	-9999.	0.659471
1.93570	-9999.	0.668030
1.96641	-9999.	0.676699
1.99761	-9999.	0.685482
2.02930	-9999.	0.693177
2.06149	-9999.	0.700858
2.09419	-9999.	0.708623
2.12742	-9999.	0.716475
2.16117	-9999.	0.724415
2.19545	-9999.	0.732442
2.23028	-9999.	0.740558
2.26566	-9999.	0.747777
2.30160	-9999.	0.753801
2.33812	-9999.	0.759875
2.37521	-9999.	0.765998
2.41289	-9999.	0.772169
2.45117	-9999.	0.778391
2.49006	-9999.	0.784663
2.52956	-9999.	0.791193
2.56969	-9999.	0.797848
2.61046	-9999.	0.804559
2.65187	-9999.	0.811326
2.69394	-9999.	0.818151
2.73668	-9999.	0.825033
2.78009	-9999.	0.830242
2.82419	-9999.	0.834710
2.86900	-9999.	0.839201
2.91451	-9999.	0.843717
2.96075	-9999.	0.848256
3.00772	-9999.	0.852933
3.05543	-9999.	0.858214
3.10391	-9999.	0.863527
3.15315	-9999.	0.868873
3.20317	-9999.	0.874252
3.25399	-9999.	0.879665
3.30561	-9999.	0.885111
3.35805	-9999.	0.890591
3.41132	-9999.	0.896105
3.46544	-9999.	0.900272
3.52042	-9999.	0.901998
3.57627	-9999.	0.903728
3.63300	-9999.	0.905461
3.69064	-9999.	0.907197
3.74918	-9999.	0.908937
3.80866	-9999.	0.910680
3.86908	-9999.	0.912426
3.93046	-9999.	0.914176
3.99282	-9999.	0.915835
4.05616	-9999.	0.917079
4.12051	-9999.	0.918324
4.18588	-9999.	0.919571
4.25228	-9999.	0.920820
4.31974	-9999.	0.922071
4.38827	-9999.	0.926205
4.45789	-9999.	0.930683
4.52861	-9999.	0.935184
4.60045	-9999.	0.939705
4.67344	-9999.	0.962294
4.74758	-9999.	0.988289
4.82289	-9999.	1.01499
4.89941	-9999.	1.04241
4.97713	-9999.	1.09531
5.05609	-9999.	1.15611
5.13630	-9999.	1.22293
5.21778	-9999.	1.29620
5.30056	-9999.	1.37386
5.38465	-9999.	1.45618
5.47007	-9999.	1.54343
5.55685	-9999.	1.64035
5.64501	-9999.	1.75316
5.73456	-9999.	1.87372
5.82553	-9999.	2.00258
5.91795	-9999.	2.09526
6.01184	-9999.	2.18049
6.10721	-9999.	2.26918
6.20410	-9999.	2.36147
6.30252	-9999.	2.43182
6.40250	-9999.	2.49772
6.50407	-9999.	2.55564
6.60726	-9999.	2.56861
6.71208	-9999.	2.57912
6.81856	-9999.	2.56426
6.92673	-9999.	2.54949
7.03662	-9999.	2.53480
7.14825	-9999.	2.52019
7.26165	-9999.	2.50567
7.37685	-9999.	2.49123
7.49388	-9999.	2.47688
7.61276	-9999.	2.46261
7.73353	-9999.	2.44842
7.85622	-9999.	2.43431
7.98085	-9999.	2.40656
8.10746	-9999.	2.36755
8.23608	-9999.	2.32917
8.36674	-9999.	2.29141
8.49947	-9999.	2.25427
8.63431	-9999.	2.21772
8.77129	-9999.	2.18177
8.91044	-9999.	2.14641
9.05180	-9999.	2.11161
9.19540	-9999.	2.07582
9.34127	-9999.	2.02516
9.48947	-9999.	1.97575
9.64001	-9999.	1.92753
9.79294	-9999.	1.88050
9.94830	-9999.	1.83461
10.1061	2.39510	1.78985
10.2664	2.40392	1.74617
10.4293	2.41029	1.70356
10.5948	2.41441	1.66199
10.7628	2.41753	1.62144
10.9336	2.41880	1.58128
11.1070	2.41762	1.53963
11.2832	2.41349	1.49909
11.4622	2.40708	1.45961
11.6441	2.39884	1.42117
11.8288	2.38921	1.38374
12.0165	2.37896	1.34730
12.2071	2.37099	1.31182
12.4008	2.36254	1.26647
12.5975	2.34485	1.21684
12.7973	2.32090	1.16915
13.0004	2.29032	1.12333
13.2066	2.25528	1.07931
13.4161	2.21583	1.03701
13.6289	2.17070	0.996368
13.8452	2.11735	0.957320
14.0648	2.06085	0.928388
14.2879	2.00519	0.904270
14.5146	1.94879	0.880778
14.7449	1.88874	0.857897
14.9788	1.82007	0.837562
15.2164	1.75472	0.832046
15.4578	1.69059	0.826565
15.7030	1.62859	0.821122
15.9521	1.54973	0.815713
16.2052	1.47031	0.831420
16.4623	1.40368	0.860818
16.7235	1.38585	0.891255
16.9888	1.38329	0.922768
17.2583	1.37377	0.850220
17.5321	1.32010	0.772550
17.8102	1.23044	0.701975
18.0927	1.10763	0.637847
18.3798	0.964128	0.620543
18.6714	0.837472	0.618712
18.9676	0.712258	0.616887
19.2685	0.588529	0.615067
19.5742	0.461982	0.613253
19.8847	0.327792	0.604924
20.2001	0.181653	0.595561
20.5206	0.231524E-01	0.586343
20.8461	-0.148999	0.577267
21.1768	-0.337180	0.568332
21.5128	-0.544183	0.560849
21.8541	-0.771478	0.556388
22.2008	-1.02128	0.551963
22.5530	-1.31056	0.547573
22.9108	-1.63565	0.545966
23.2742	-1.99975	0.581074
23.6435	-2.41857	0.618439
24.0185	-2.90483	0.658208
24.3996	-3.53569	0.772482
24.7867	-4.21396	1.09737
25.1799	-4.85910	1.54210
25.5793	-5.46521	2.10937
25.9851	-6.02699	2.78075
26.3974	-6.52110	3.56792
26.8162	-6.88379	4.48903
27.2416	-7.09298	5.23594
27.6737	-7.33075	6.10711
28.1128	-7.54508	6.95761
28.5588	-7.76340	7.80938
29.0118	-8.03703	8.76544
29.4721	-8.32414	9.83853
29.9396	-8.65988	11.2719
30.4146	-8.59585	13.0162
30.8971	-8.27915	14.7412
31.3873	-7.76316	16.5675
31.8852	-7.01585	18.4999
32.3910	-5.87171	20.6577
32.9049	-4.05259	22.9653
33.4269	-1.26597	24.9551
33.9572	1.92684	25.6313
34.4959	5.23662	26.0096
35.0431	8.87601	25.6904
35.5991	12.1410	23.9082
36.1638	14.1761	21.5811
36.7375	15.3889	19.4079
37.3204	16.1590	17.4940
37.9124	16.6692	15.8151
38.5139	17.0149	14.2972
39.1249	17.2483	12.9251
39.7456	17.4466	11.5996
40.3761	17.4206	10.2425
41.0166	17.2558	9.04410
41.6673	16.9707	7.98595
42.3283	16.6475	7.09753
42.9999	16.2977	6.31561
43.6820	15.9524	5.61984
44.3750	15.6027	4.98618
45.0790	15.2407	4.40751
45.7941	14.8655	3.89600
46.5206	14.4794	3.44384
47.2586	14.0938	3.05422
48.0083	13.7237	2.72251
48.7700	13.3739	2.42683
49.5437	13.0329	2.16326
50.3296	12.6978	1.92831
51.1281	12.3697	1.72052
51.9392	12.0529	1.55938
52.7632	11.7501	1.41334
53.6002	11.4520	1.28097
54.4505	11.1411	1.16100
55.3143	10.8466	1.11648
56.1919	10.5929	1.08732
57.0833	10.3619	1.05892
57.9889	10.1393	1.03126
58.9088	9.90931	1.00432
59.8434	9.69744	1.03679
60.7928	9.50421	1.07278
61.7572	9.33769	1.11001
62.7369	9.18518	1.14854
63.7322	9.04205	1.18841
64.7433	8.90154	1.23146
65.7704	8.77466	1.29118
66.8138	8.66054	1.35380
67.8737	8.55846	1.41945
68.9505	8.46716	1.48808
70.0443	8.38664	1.55990
71.1555	8.31722	1.63519
72.2843	8.26570	1.71411
73.4311	8.22577	1.77796
74.5960	8.18966	1.84035
75.7794	8.15338	1.90494
76.9816	8.12662	1.97179
78.2029	8.11294	2.04099
79.4435	8.11514	2.09781
80.7038	8.11278	2.13837
81.9841	8.11038	2.17971
83.2847	8.10709	2.22185
84.6060	8.10925	2.26481
85.9482	8.11520	2.30732
87.3117	8.12535	2.33595
88.6968	8.13141	2.36493
90.1039	8.13695	2.39427
91.5334	8.14313	2.42397
92.9855	8.15189	2.45404
94.4606	8.16201	2.48235
95.9592	8.17233	2.51006
97.4815	8.18342	2.53808
99.0280	8.19601	2.56642
100.599	8.21040	2.59508
102.195	8.22695	2.62405
103.816	8.24634	2.65334
105.463	8.27108	2.68297
107.136	8.29779	2.70556
108.836	8.32366	2.72644
110.562	8.35009	2.74749
112.316	8.37851	2.76870
114.098	8.41057	2.79007
115.908	8.44631	2.80996
117.747	8.48535	2.81541
119.615	8.51800	2.82088
121.513	8.54899	2.82635
123.440	8.57962	2.83184
125.399	8.61090	2.83734
127.388	8.64455	2.84284
129.409	8.68492	2.84162
131.462	8.71738	2.83252
133.548	8.74602	2.82344
135.666	8.77216	2.81440
137.818	8.79660	2.80538
140.005	8.81981	2.79638
142.226	8.84188	2.78742
144.482	8.86642	2.77849
146.774	8.89074	2.76763
149.103	8.91244	2.75048
151.468	8.93015	2.73343
153.871	8.94535	2.71650
156.312	8.95859	2.69966
158.792	8.97018	2.68293
161.311	8.98045	2.66631
163.870	8.99013	2.64979
166.470	8.99921	2.63061
169.111	9.00476	2.61007
171.793	9.00789	2.58969
174.519	9.00868	2.56947
177.287	9.00771	2.54941
180.100	9.00545	2.52950
182.957	9.00336	2.50975
185.860	9.00009	2.48437
188.808	8.99286	2.45493
191.803	8.97826	2.42583
194.846	8.95899	2.39709
197.937	8.93548	2.36868
201.077	8.90765	2.34061
204.267	8.87361	2.31287
207.508	8.83453	2.28546
210.800	8.78972	2.26523
214.144	8.74453	2.24815
217.541	8.69792	2.23119
220.992	8.64868	2.21436
224.498	8.59636	2.19766
228.060	8.54094	2.18108
231.678	8.48387	2.16463
235.353	8.42270	2.14022
239.087	8.35102	2.11445
242.880	8.27087	2.08899
246.733	8.18345	2.06384
250.647	8.08958	2.03899
254.624	7.98506	2.00797
258.663	7.86627	1.97184
262.766	7.72987	1.93637
266.935	7.57576	1.90153
271.170	7.40081	1.86732
275.472	7.20528	1.84086
279.842	6.98886	1.81912
284.281	6.75141	1.79763
288.791	6.48682	1.77640
293.373	6.18761	1.75543
298.027	5.84860	1.72681
302.755	5.44700	1.69152
307.558	4.98152	1.65379
312.437	4.37838	1.57920
317.393	3.60474	1.53984
322.429	2.63484	1.53528
325.580	1.91188	1.54147
330.523	0.397283	1.49131
330.000	0.591733	1.49676
330.500	0.407821	1.49147
331.000	0.216069	1.48805
331.500	0.165967E-01	1.48399
332.000	-0.190536	1.47990
332.500	-0.408637	1.47516
333.000	-0.636363	1.47040
333.500	-0.877095	1.46531
334.000	-1.12969	1.45955
334.500	-1.39846	1.45377
335.000	-1.68501	1.44669
335.500	-1.98968	1.44789
336.000	-2.30315	1.45261
336.500	-2.64444	1.44035
337.000	-3.00900	1.44762
337.500	-3.38575	1.45909
338.000	-3.79175	1.44001
338.500	-4.24531	1.43311
339.000	-4.73977	1.42296
339.500	-5.28738	1.42408
340.000	-5.87659	1.44140
340.500	-6.51835	1.45812
341.000	-7.22888	1.46935
341.500	-8.02343	1.49688
342.000	-8.91530	1.51438
342.500	-9.94817	1.53943
343.000	-11.1345	1.58643
343.500	-12.5421	1.62801
344.000	-14.2760	1.66740
344.500	-16.5096	1.78434
345.000	-19.6471	1.99920
345.500	-24.1762	3.08575
346.000	-29.7740	6.36037
346.100	-31.0146	7.34927
346.300	-33.3717	10.1628
346.500	-35.7498	13.2573
347.000	-39.1085	25.7464
347.500	-31.3858	43.1930
348.000	-13.0037	49.8844
348.500	0.400675	37.9068
349.000	-0.498079E-01	24.7845
349.500	-10.4611	17.9226
350.000	-25.4400	23.3620
350.500	-28.6610	47.0712
351.000	-10.0193	68.2671
351.500	14.2373	64.1460
352.000	27.2154	49.1502
352.500	29.7874	36.0589
353.000	27.5931	27.9264
353.500	24.9027	23.2758
354.000	22.8049	20.2506
354.500	21.0408	17.9291
355.000	19.4307	16.1421
355.500	17.9590	14.8646
356.000	16.6661	13.9022
356.500	15.5081	13.2018
357.000	14.5226	12.7205
357.500	13.6916	12.3638
358.000	12.9814	12.0401
358.500	12.2979	11.7906
359.000	11.6970	11.6326
359.500	11.1337	11.5392
360.000	10.6747	11.4970
360.500	10.2133	11.4924
361.000	9.88782	11.5564
361.500	9.55011	11.6207
362.000	9.34515	11.6747
362.580	9.02588	11.8365
367.689	8.32134	12.1481
373.522	8.57665	12.4687
379.448	9.12464	12.5787
385.467	9.72730	12.1826
388.020	9.72216	11.9297
393.912	9.80824	11.9665
400.161	10.1451	12.0385
406.509	10.6087	11.8494
412.958	10.7633	11.6933
419.510	10.7559	11.9784
426.165	11.3408	11.8164
432.926	11.4096	11.8061
439.794	11.6071	11.9934
446.771	12.1054	12.1285
453.858	12.6505	12.2466
461.058	13.1919	12.0821
468.373	13.6252	11.8364
475.803	13.9486	11.6220
483.351	14.2282	11.4301
491.019	14.5079	11.2626
498.809	14.7580	11.0583
506.722	14.9219	10.8961
514.761	15.1203	10.8074
522.927	15.3365	10.6558
531.223	15.4629	10.5616
539.651	15.6599	10.5936
548.212	16.0894	10.4609
556.909	16.4060	10.2654
565.744	16.6245	10.0627
574.719	16.8261	9.86641
583.836	17.0129	9.67545
593.099	17.1870	9.48980
602.508	17.3514	9.30785
612.066	17.5063	9.12946
621.776	17.6574	8.95457
631.640	17.8042	8.77911
641.660	17.9465	8.60269
651.840	18.0762	8.41198
662.181	18.1862	8.22484
672.686	18.2771	8.04179
683.357	18.3546	7.89146
694.198	18.4464	7.74909
705.211	18.5483	7.61111
716.399	18.6579	7.44970
727.764	18.7475	7.28686
739.310	18.8283	7.12758
751.038	18.9032	6.97203
762.953	18.9741	6.81963
775.056	19.0409	6.66959
787.352	19.1053	6.51862
799.843	19.1616	6.36909
812.532	19.2126	6.22301
825.422	19.2590	6.08030
838.517	19.3011	5.94087
851.819	19.3396	5.80505
865.333	19.3748	5.67282
879.061	19.4074	5.54399
893.006	19.4382	5.41812
907.173	19.4664	5.29509
921.565	19.4926	5.17483
936.185	19.5169	5.05698
951.036	19.5392	4.94170
966.124	19.5596	4.82897
981.451	19.5786	4.71876
997.021	19.5964	4.61083
1012.84	19.6143	4.50493
1028.91	19.6309	4.39868
1045.23	19.6449	4.29383
1061.81	19.6556	4.19020
1078.66	19.6639	4.08911
1095.77	19.6703	3.99045
1113.15	19.6751	3.89414
1130.81	19.6784	3.80017
1148.75	19.6803	3.70849
1166.97	19.6810	3.61908
1185.49	19.6806	3.53179
1204.29	19.6792	3.44657
1223.40	19.6768	3.36338
1242.81	19.6734	3.28224
1262.52	19.6693	3.20308
1282.55	19.6645	3.12585
1302.90	19.6589	3.05048
1323.57	19.6529	2.97694
1344.57	19.6462	2.90516
1365.90	19.6392	2.83511
1387.57	19.6317	2.76675
1409.58	19.6240	2.70000
1431.94	19.6160	2.63487
1454.66	19.6089	2.57134
1477.73	19.6020	2.50815
1501.18	19.5962	2.44517
1524.99	19.5876	2.38032
1549.18	19.5768	2.31722
1573.76	19.5648	2.25579
1598.73	19.5516	2.19593
1624.09	19.5376	2.13774
1649.86	19.5230	2.08114
1676.03	19.5078	2.02596
1702.62	19.4920	1.97221
1729.63	19.4758	1.91985
1757.07	19.4591	1.86854
1784.94	19.4418	1.81855
1813.26	19.4239	1.76985
1842.03	19.4055	1.72243
1871.25	19.3867	1.67628
1900.93	19.3674	1.63135
1931.09	19.3477	1.58764
1961.73	19.3276	1.54510
1992.85	19.3071	1.50369
2000.	19.3023	1.49442
2026.	19.2853	1.46188
2052.	19.2683	1.43000
2079.	19.2506	1.39804
2106.	19.2328	1.36721
2134.	19.2143	1.33635
2161.	19.1964	1.30762
2190.	19.1771	1.27784
2218.	19.1584	1.25009
2247.	19.1390	1.22235
2277.	19.1189	1.19468
2306.	19.0995	1.16887
2337.	19.0786	1.14225
2367.	19.0582	1.11739
2398.	19.0371	1.09262
2429.	19.0159	1.06871
2461.	18.9939	1.04491
2493.	18.9717	1.02193
2526.	18.9487	0.999108
2559.	18.9254	0.977087
2592.	18.9020	0.955840
2626.	18.8775	0.934738
2660.	18.8528	0.914360
2695.	18.8269	0.894151
2730.	18.8008	0.874665
2766.	18.7734	0.855322
2802.	18.7455	0.836670
2839.	18.7162	0.818217
2876.	18.6864	0.800392
2914.	18.6550	0.782769
2952.	18.6227	0.765760
2990.	18.5896	0.749359
3029.	18.5545	0.733140
3069.	18.5173	0.717098
3109.	18.4788	0.701659
3150.	18.4376	0.686370
3191.	18.3947	0.671658
3232.	18.3498	0.657446
3275.	18.3001	0.643110
3317.	18.2489	0.629590
3361.	18.1919	0.615949
3405.	18.1309	0.602803
3449.	18.0653	0.590126
3494.	17.9926	0.577625
3540.	17.9112	0.565337
3586.	17.8213	0.553454
3633.	17.7186	0.541779
3680.	17.6018	0.530527
3729.	17.4606	0.519229
3777.	17.2962	0.508537
3827.	17.0853	0.497809
3877.	16.8113	0.487511
3927.	16.4251	0.477565
3979.	15.7482	0.467592
4031.	13.4005	0.457962
4038.40	8.35545	0.456618
4038.60	8.35644	4.14292
4083.	15.5891	4.07402
4137.	16.5818	3.99275
4191.	17.1402	3.91398
4245.	17.5320	3.83729
4301.	17.8437	3.75998
4357.	18.0949	3.68489
4414.	18.3080	3.61063
4472.	18.4926	3.53719
4530.	18.6523	3.46588
4589.	18.7948	3.39546
4649.	18.9229	3.32592
4710.	19.0389	3.25732
4771.	19.1429	3.19072
4834.	19.2397	3.12400
4897.	19.3271	3.05926
4961.	19.4077	2.99548
5026.	19.4821	2.93271
5091.	19.5501	2.87177
5158.	19.6140	2.81091
5225.	19.6726	2.75192
5294.	19.7279	2.69302
5363.	19.7786	2.63597
5433.	19.8259	2.57987
5504.	19.8699	2.52477
5576.	19.9110	2.47060
5649.	19.9493	2.41745
5722.	19.9846	2.36595
5797.	20.0180	2.31475
5873.	20.0492	2.26449
5950.	20.0782	2.21518
6027.	20.1049	2.16744
6106.	20.1302	2.12007
6186.	20.1537	2.07361
6267.	20.1755	2.02812
6349.	20.1959	1.98354
6432.	20.2147	1.93994
6516.	20.2323	1.89719
6601.	20.2485	1.85536
6687.	20.2635	1.81444
6774.	20.2774	1.77436
6863.	20.2904	1.73473
6952.	20.3022	1.69644
7043.	20.3132	1.65854
7135.	20.3232	1.62149
7229.	20.3325	1.58494
7323.	20.3409	1.54954
7419.	20.3485	1.51467
7516.	20.3555	1.48057
7614.	20.3617	1.44729
7713.	20.3673	1.41476
7814.	20.3723	1.38275
7916.	20.3768	1.35149
8019.	20.3807	1.32096
8124.	20.3840	1.29090
8230.	20.3869	1.26157
8338.	20.3894	1.23278
8447.	20.3914	1.20465
8557.	20.3931	1.17722
8669.	20.3943	1.15019
8782.	20.3951	1.12394
8897.	20.3956	1.09807
9013.	20.3958	1.07298
9131.	20.3957	1.04824
9250.	20.3953	1.02411
9371.	20.3946	1.00055
9494.	20.3937	0.977335
9618.	20.3925	0.954739
9743.	20.3911	0.932719
9897.57	20.3891	0.906572
10054.6	20.3868	0.881120
10214.1	20.3842	0.856346
10376.1	20.3814	0.832232
10540.7	20.3784	0.808764
10708.0	20.3751	0.785923
10877.8	20.3717	0.763696
11050.4	20.3681	0.742066
11225.7	20.3643	0.721018
11403.8	20.3603	0.700538
11584.7	20.3563	0.680611
11768.5	20.3521	0.661223
11955.2	20.3478	0.642360
12144.9	20.3434	0.624009
12337.5	20.3389	0.606157
12533.2	20.3344	0.588790
12732.1	20.3297	0.571897
12934.1	20.3250	0.555464
13139.3	20.3203	0.539480
13347.7	20.3155	0.523933
13559.4	20.3107	0.508811
13774.6	20.3059	0.494103
13993.1	20.3010	0.479799
14215.1	20.2961	0.465888
14440.6	20.2912	0.452359
14669.7	20.2863	0.439201
14902.4	20.2814	0.426406
15138.8	20.2765	0.413964
15379.0	20.2716	0.401864
15623.0	20.2667	0.390098
15870.8	20.2619	0.378657
16122.6	20.2570	0.367532
16378.4	20.2522	0.356714
16638.2	20.2474	0.346196
16902.1	20.2426	0.335969
17170.3	20.2379	0.326024
17442.7	20.2332	0.316355
17719.4	20.2285	0.306955
18000.5	20.2239	0.297814
18286.1	20.2193	0.288928
18576.1	20.2147	0.280287
18870.8	20.2102	0.271887
19170.2	20.2057	0.263720
19474.3	20.2013	0.255779
19783.3	20.1969	0.248059
20097.1	20.1925	0.240620
20416.0	20.1882	0.233327
20739.8	20.1840	0.226244
21068.9	20.1798	0.219365
21403.1	20.1756	0.212685
21742.7	20.1715	0.206199
22087.6	20.1674	0.199902
22438.0	20.1634	0.193787
22793.9	20.1595	0.187851
23155.6	20.1555	0.182088
23522.9	20.1517	0.176494
23896.1	20.1479	0.171064
24275.2	20.1442	0.165794
24660.3	20.1405	0.160679
25051.5	20.1368	0.155714
25448.9	20.1333	0.150896
25852.6	20.1297	0.146221
26262.8	20.1263	0.141685
26679.4	20.1228	0.137283
27102.7	20.1195	0.133012
27532.6	20.1162	0.128868
27969.4	20.1129	0.124848
28413.1	20.1097	0.120948
28863.9	20.1066	0.117165
29321.8	20.1035	0.113496
29787.0	20.1005	0.109937
30000.0	20.0991	0.108360
