E(eV)	f1	f2
10.0000	-9999.	1.06978
10.1617	-9999.	1.07987
10.3261	-9999.	1.09005
10.4931	-9999.	1.10033
10.6628	-9999.	1.11071
10.8353	-9999.	1.12118
11.0105	-9999.	1.13176
11.1886	-9999.	1.14243
11.3696	-9999.	1.15321
11.5535	-9999.	1.16408
11.7404	-9999.	1.17506
11.9303	-9999.	1.18614
12.1232	-9999.	1.19368
12.3193	-9999.	1.19917
12.5186	-9999.	1.20469
12.7210	-9999.	1.21023
12.9268	-9999.	1.21580
13.1359	-9999.	1.22139
13.3483	-9999.	1.22701
13.5642	-9999.	1.23266
13.7836	-9999.	1.23585
14.0066	-9999.	1.23499
14.2331	-9999.	1.23413
14.4633	-9999.	1.23327
14.6972	-9999.	1.23242
14.9350	-9999.	1.23156
15.1765	-9999.	1.22451
15.4220	-9999.	1.21522
15.6714	-9999.	1.20599
15.9249	-9999.	1.19684
16.1825	-9999.	1.18776
16.4442	-9999.	1.17136
16.7102	-9999.	1.15466
16.9805	-9999.	1.13821
17.2551	-9999.	1.12091
17.5342	-9999.	1.09962
17.8178	-9999.	1.07874
18.1060	-9999.	1.05664
18.3988	-9999.	1.03225
18.6964	-9999.	1.00819
18.9988	-9999.	0.984235
19.3061	0.899370	0.960846
19.6184	0.848332	0.938012
19.9357	0.791683	0.915721
20.2581	0.729132	0.893960
20.5858	0.658398	0.872717
20.9187	0.581335	0.855925
21.2571	0.497486	0.839631
21.6009	0.406542	0.829103
21.9503	0.313088	0.822591
22.3053	0.215305	0.816130
22.6661	0.111336	0.809721
23.0327	0.322480E-03	0.803361
23.4052	-0.119556	0.794611
23.7838	-0.254806	0.783977
24.1685	-0.403297	0.784953
24.5594	-0.559048	0.786442
24.9566	-0.727394	0.787936
25.3602	-0.911631	0.789432
25.7704	-1.11374	0.790930
26.1872	-1.33979	0.789166
26.6108	-1.59834	0.783227
27.0412	-1.90619	0.770810
27.4786	-2.29321	0.758588
27.6000	-2.43285	0.755264
27.8000	-2.66891	0.760916
28.0000	-2.99549	0.793044
28.2000	-3.33442	0.952907
28.4000	-3.54366	1.29828
28.6000	-3.62526	1.47576
29.0000	-3.90353	1.66650
29.2000	-4.13579	1.81320
29.4000	-4.30231	2.07640
29.8755	-4.63452	2.57560
30.0000	-4.69850	2.72349
30.2000	-4.76186	2.93857
30.4000	-4.82447	3.12546
30.6000	-4.86485	3.28692
31.0000	-5.02039	3.53060
31.5014	-5.31631	3.78133
31.8000	-5.63481	3.93700
32.2000	-6.09642	4.29167
32.7208	-6.73990	4.99336
33.2500	-7.29491	5.92893
33.7878	-7.71261	7.06518
33.8000	-7.72004	7.09303
34.2000	-7.90318	8.07985
34.4000	-7.92401	8.41744
34.6000	-7.78715	9.12771
35.1596	-7.75421	10.0604
35.7283	-7.79575	11.3901
36.3062	-7.53562	12.9223
36.8934	-6.99959	14.5227
37.4000	-6.21836	15.9084
37.8000	-5.40492	16.8866
38.4114	-4.11965	17.9812
39.0327	-2.81304	19.0760
39.6640	-1.32321	20.1121
40.3055	0.481781	21.1043
40.9574	2.45824	21.6159
41.2000	3.26151	21.8072
41.6000	4.59601	22.0020
42.2728	6.84016	21.7168
42.8000	8.47597	21.4990
43.4000	10.3706	20.8350
44.1020	12.3413	19.6706
44.8153	13.9719	18.1629
45.5401	15.2333	16.5033
46.2767	16.0176	14.6015
46.4000	16.0353	14.3024
47.0000	16.2952	13.4760
47.4000	16.7303	12.6528
48.1667	17.1377	10.8557
48.9457	17.0441	9.30942
49.7374	16.9166	7.96641
49.8000	16.9648	7.86966
50.0000	16.7561	7.09731
50.4000	16.3154	6.61455
51.0000	15.8083	5.98113
51.2000	15.6698	5.76828
51.6000	15.3753	5.42948
52.2000	14.9724	4.93898
53.0000	14.4742	4.41989
53.4000	14.2588	4.16149
54.0000	13.9120	3.82949
54.8734	13.4620	3.43955
55.2000	13.3067	3.30561
55.4000	13.2274	3.19726
56.2000	12.7997	2.92970
56.6000	12.6382	2.78746
57.5155	12.2318	2.53626
58.4457	11.8629	2.31622
59.3910	11.5048	2.12758
60.3516	11.1461	1.97100
61.3278	10.8084	1.87275
62.3197	10.5089	1.79287
63.3277	10.2277	1.73338
64.3520	9.96625	1.69148
65.3928	9.71833	1.66375
66.4505	9.49115	1.66258
67.5253	9.28739	1.66784
68.6174	9.09879	1.68113
69.7272	8.92740	1.70434
70.8550	8.77350	1.72786
72.0011	8.62754	1.75171
73.1656	8.48436	1.78381
74.3490	8.35371	1.82944
75.5516	8.23764	1.87624
76.7735	8.13054	1.92863
78.0153	8.03541	1.98573
79.2771	7.95100	2.04452
80.5594	7.87591	2.10505
81.8624	7.80976	2.16737
83.1864	7.75324	2.23154
84.5319	7.70749	2.29625
85.8991	7.66842	2.35445
87.2885	7.63254	2.41413
88.7003	7.60206	2.47532
90.1349	7.57771	2.53805
91.5928	7.56003	2.60238
93.0742	7.54995	2.66834
94.5796	7.54913	2.73597
96.1094	7.56315	2.80529
97.6639	7.58654	2.85712
99.2435	7.61462	2.90991
100.849	7.65167	2.94600
102.480	7.68389	2.97151
104.137	7.70979	2.99590
105.822	7.73569	3.02049
107.533	7.77231	3.04528
109.273	7.81098	3.05057
111.040	7.83247	3.04580
112.836	7.84334	3.04587
114.661	7.85125	3.05196
116.516	7.85717	3.05806
118.400	7.84807	3.06416
120.315	7.83308	3.09312
122.261	7.83368	3.13948
124.239	7.84721	3.18654
126.248	7.87015	3.23375
128.290	7.90134	3.28036
130.365	7.94165	3.32764
132.474	7.99931	3.37560
134.616	8.07252	3.39512
136.793	8.13553	3.39598
139.006	8.18779	3.39616
141.254	8.23677	3.39040
143.539	8.27991	3.38466
145.861	8.32254	3.37892
148.220	8.36510	3.36764
150.617	8.40260	3.35200
153.053	8.43423	3.33643
155.529	8.46268	3.32093
158.044	8.48710	3.30551
160.601	8.50846	3.29235
163.198	8.52928	3.28157
165.838	8.54966	3.27084
168.520	8.56727	3.26013
171.246	8.58349	3.25310
174.015	8.60238	3.24953
176.830	8.62434	3.24595
179.690	8.64981	3.24238
182.596	8.68445	3.23881
185.550	8.72142	3.21131
188.551	8.74517	3.18027
191.601	8.76148	3.14954
194.700	8.77438	3.11910
197.849	8.78322	3.08462
201.049	8.78526	3.04964
204.300	8.78121	3.01504
207.605	8.77037	2.98085
210.963	8.75262	2.95292
214.375	8.73439	2.93083
217.842	8.71743	2.90891
221.366	8.69855	2.88715
224.946	8.67763	2.86556
228.584	8.65450	2.84413
232.282	8.62916	2.82285
236.039	8.60157	2.80174
239.856	8.57643	2.78078
243.736	8.54861	2.74979
247.678	8.50952	2.71614
251.684	8.46340	2.68291
255.755	8.41233	2.64995
259.891	8.35413	2.61321
264.095	8.28579	2.57698
268.366	8.20920	2.54126
272.707	8.12409	2.50603
277.118	8.02985	2.47089
281.600	7.92525	2.43554
286.155	7.80929	2.40070
290.783	7.68111	2.36636
295.486	7.53952	2.33251
300.265	7.38302	2.29914
305.122	7.20984	2.26625
310.057	7.01815	2.23383
315.072	6.80578	2.20146
320.168	6.56739	2.16494
325.347	6.29619	2.12901
330.609	5.98786	2.09368
335.956	5.63516	2.05895
341.390	5.22818	2.02478
346.912	4.75314	1.99118
352.523	4.19047	1.95814
358.224	3.51117	1.92565
364.018	2.67009	1.89370
369.906	1.59201	1.86228
375.889	0.139439	1.83138
381.969	-1.97461	1.80099
386.960	-4.65793	1.77677
391.610	-8.91462	1.78582
393.850	-12.4165	1.82566
395.100	-15.2881	1.88861
396.110	-18.5583	1.99488
396.490	-20.1676	2.06025
396.880	-22.1838	2.17286
397.120	-23.6779	2.28686
397.260	-24.7037	2.38826
397.380	-25.6556	2.53571
397.510	-26.8590	2.72434
397.640	-28.1599	3.13268
397.770	-29.5449	3.73662
398.020	-32.2067	5.39374
398.270	-34.3592	8.12081
398.400	-35.0866	9.49362
398.540	-35.9156	10.6483
398.600	-36.3299	11.1669
398.800	-38.9871	13.0147
398.910	-39.7072	15.6348
399.300	-40.6603	22.1038
399.430	-40.7569	24.6224
399.560	-39.9031	27.0539
399.680	-39.6138	29.0801
399.950	-41.4482	32.0182
400.070	-38.8600	38.6551
400.200	-35.6422	39.7823
400.460	-31.7259	41.1456
401.110	-21.9442	47.7781
401.240	-18.6597	48.6681
401.370	-15.5524	48.7739
401.500	-11.6945	47.9833
401.630	-8.93154	46.0636
401.760	-6.05730	43.5546
402.020	-1.49167	37.7465
402.150	-3.04821	30.4954
402.280	-6.61048	28.9314
402.410	-9.05651	27.9012
402.550	-11.7359	27.2202
402.670	-13.7147	27.1281
402.810	-16.2954	27.3122
402.930	-18.1669	27.8154
403.200	-23.4101	29.9854
403.330	-27.4945	31.3317
403.460	-28.9051	39.0163
403.590	-27.5744	41.6764
403.720	-26.9969	45.0395
404.110	-22.4281	54.6246
404.250	-19.4555	57.4984
404.510	-13.0656	60.3531
404.780	-7.24613	61.2929
405.300	1.79225	60.8044
405.700	8.50274	61.2892
405.840	11.5356	61.1066
406.100	16.9583	59.0111
406.370	21.8667	55.5900
406.500	23.9548	53.5709
406.770	26.1965	48.3045
407.310	29.4965	40.4434
407.430	31.3117	39.0750
407.570	31.5578	32.8216
407.970	25.4728	30.1740
408.380	22.8004	28.3614
408.920	21.7185	26.8602
410.000	20.1051	24.4422
414.100	17.4785	16.0585
415.210	15.8801	14.7193
416.050	14.8234	14.0610
417.450	13.3988	13.6012
420.140	11.6365	13.2076
422.860	10.5904	13.2353
425.920	9.87551	13.2874
427.570	9.63341	13.3891
434.486	9.33972	14.1229
436.530	9.59574	14.3450
439.640	10.1274	14.4299
445.170	10.7509	13.6169
452.370	10.6168	12.9235
452.480	10.6113	12.9132
456.650	10.3793	12.9156
464.036	10.2892	13.4462
467.850	10.6506	13.7253
475.020	11.3795	13.7088
482.410	11.8785	13.1984
489.070	11.7100	12.7024
493.940	11.4016	12.8030
501.929	11.4074	13.7728
506.040	11.9539	14.2936
510.210	12.6256	14.3820
518.462	13.6776	13.8796
526.848	14.0914	13.3948
528.700	14.1248	13.2911
534.400	14.1880	13.0296
539.040	14.2400	13.0287
547.759	14.5323	13.1435
556.618	15.1121	13.1547
565.621	15.6605	12.7886
567.410	15.7470	12.7178
575.320	15.9575	12.2792
584.625	16.0117	12.0521
594.081	16.2074	11.9889
603.690	16.5298	11.9157
613.454	16.8580	11.6680
623.376	17.1187	11.4255
633.459	17.3055	11.1500
643.705	17.4301	10.9459
654.116	17.6188	10.8289
664.696	17.8476	10.6482
675.447	18.0402	10.4378
686.372	18.2104	10.2315
697.473	18.3636	10.0293
708.754	18.5016	9.83457
720.218	18.6338	9.65646
731.867	18.7655	9.48157
743.704	18.8939	9.30986
755.733	19.0194	9.14125
767.956	19.1447	8.97373
780.377	19.2650	8.80227
792.999	19.3771	8.63407
805.825	19.4855	8.46910
818.859	19.5913	8.30728
832.103	19.6969	8.14854
845.562	19.8088	7.98593
859.238	19.9158	7.80921
873.135	20.0005	7.62636
887.258	20.0726	7.45709
901.608	20.1509	7.29864
916.191	20.2316	7.13202
931.010	20.2990	6.95408
946.068	20.3502	6.78057
961.370	20.3897	6.61884
976.919	20.4259	6.46829
992.720	20.4641	6.32521
1008.78	20.5022	6.18530
1024.60	20.5403	6.05255
1037.50	20.5703	5.94508
1054.28	20.6051	5.80707
1071.33	20.6359	5.67227
1088.66	20.6641	5.54059
1106.27	20.6901	5.41197
1124.16	20.7171	5.28634
1142.34	20.7420	5.15821
1160.82	20.7614	5.03221
1179.60	20.7777	4.90929
1198.68	20.7925	4.78936
1218.06	20.8050	4.67069
1237.76	20.8143	4.55433
1257.78	20.8212	4.44087
1278.13	20.8260	4.33023
1298.80	20.8289	4.22235
1319.81	20.8302	4.11716
1341.15	20.8300	4.01459
1362.85	20.8284	3.91457
1384.89	20.8255	3.81705
1407.29	20.8215	3.72196
1430.05	20.8163	3.62923
1453.18	20.8101	3.53882
1476.68	20.8030	3.45065
1500.57	20.7950	3.36469
1524.84	20.7862	3.28087
1549.50	20.7767	3.19913
1574.56	20.7664	3.11943
1600.03	20.7555	3.04172
1625.91	20.7441	2.96594
1652.21	20.7320	2.89205
1678.93	20.7195	2.81999
1706.09	20.7065	2.74974
1733.68	20.6932	2.68124
1761.72	20.6795	2.61444
1790.22	20.6656	2.54931
1819.17	20.6516	2.48580
1848.60	20.6380	2.42387
1878.50	20.6246	2.36160
1908.88	20.6097	2.29979
1939.75	20.5934	2.23961
1971.13	20.5763	2.18100
2003.01	20.5586	2.12392
2035.41	20.5403	2.06833
2068.33	20.5215	2.01420
2101.78	20.5022	1.96149
2135.78	20.4824	1.91016
2170.32	20.4623	1.86017
2205.42	20.4417	1.81148
2241.09	20.4207	1.76408
2277.34	20.3993	1.71791
2314.18	20.3776	1.67295
2351.61	20.3554	1.62917
2389.64	20.3329	1.58653
2428.29	20.3100	1.54501
2467.57	20.2867	1.50458
2507.48	20.2629	1.46520
2548.03	20.2388	1.42685
2589.25	20.2142	1.38951
2631.13	20.1891	1.35315
2673.68	20.1636	1.31773
2716.93	20.1375	1.28325
2760.87	20.1110	1.24966
2805.53	20.0841	1.21696
2850.90	20.0570	1.18467
2897.01	20.0289	1.15202
2943.87	19.9989	1.12028
2991.49	19.9678	1.08940
3039.87	19.9354	1.05938
3089.04	19.9016	1.03019
3139.	19.8665	1.00180
3189.77	19.8297	0.974190
3241.36	19.7913	0.947341
3293.79	19.7509	0.921234
3347.06	19.7084	0.895847
3401.20	19.6635	0.871160
3456.21	19.6159	0.847153
3512.11	19.5651	0.823805
3568.92	19.5107	0.801103
3626.64	19.4522	0.779026
3685.30	19.3887	0.757558
3744.91	19.3194	0.736681
3805.48	19.2430	0.716380
3867.03	19.1582	0.696636
3929.58	19.0626	0.676555
3993.13	18.9524	0.656887
4057.72	18.8235	0.637792
4123.35	18.6692	0.619252
4190.04	18.4784	0.601250
4257.81	18.2306	0.583771
4326.68	17.8833	0.566801
4396.66	17.3182	0.550324
4467.77	15.8638	0.534326
4472.	15.6584	0.533398
4492.70	9.61866	0.528888
4492.90	9.61954	4.10855
4530.	16.4170	4.05808
4603.27	17.7259	3.96138
4677.72	18.3611	3.86698
4753.38	18.7881	3.77483
4830.26	19.1104	3.68488
4908.39	19.3688	3.59707
4987.78	19.5839	3.51136
5068.45	19.7674	3.42768
5150.43	19.9268	3.34600
5233.73	20.0672	3.26627
5318.39	20.1924	3.18843
5404.41	20.3049	3.11246
5491.82	20.4071	3.03829
5580.64	20.5010	2.96589
5670.91	20.5896	2.89350
5762.63	20.6698	2.81762
5855.83	20.7399	2.74374
5950.55	20.8035	2.67179
6046.79	20.8612	2.60173
6144.59	20.9138	2.53350
6243.98	20.9618	2.46706
6344.97	21.0058	2.40237
6447.59	21.0460	2.33938
6551.88	21.0830	2.27803
6657.85	21.1169	2.21830
6765.54	21.1481	2.16012
6874.96	21.1769	2.10348
6986.16	21.2034	2.04832
7099.16	21.2280	1.99461
7213.98	21.2508	1.94230
7330.66	21.2726	1.89137
7449.23	21.2935	1.84092
7569.71	21.3122	1.78939
7692.15	21.3280	1.73931
7816.56	21.3419	1.69062
7942.99	21.3542	1.64330
8071.46	21.3649	1.59731
8202.01	21.3744	1.55259
8334.67	21.3827	1.50914
8469.48	21.3899	1.46689
8606.46	21.3960	1.42584
8745.67	21.4013	1.38593
8887.12	21.4058	1.34713
9030.86	21.4095	1.30942
9176.93	21.4125	1.27277
9325.36	21.4149	1.23715
9476.19	21.4167	1.20252
9629.46	21.4181	1.16886
9785.21	21.4194	1.13614
9943.47	21.4202	1.10358
10104.3	21.4201	1.07186
10267.7	21.4195	1.04099
10433.8	21.4184	1.01093
10602.6	21.4168	0.981680
10774.1	21.4149	0.953215
10948.3	21.4126	0.925517
11125.4	21.4100	0.898568
11305.3	21.4070	0.872351
11488.2	21.4038	0.846849
11674.0	21.4003	0.822044
11862.8	21.3965	0.797920
12054.7	21.3926	0.774460
12249.7	21.3884	0.751648
12447.8	21.3840	0.729468
12649.1	21.3795	0.707905
12853.7	21.3749	0.686943
13061.6	21.3701	0.666567
13272.9	21.3652	0.646762
13487.6	21.3601	0.627514
13705.7	21.3550	0.608809
13927.4	21.3498	0.590633
14152.7	21.3445	0.572971
14381.6	21.3392	0.555812
14614.2	21.3338	0.539141
14850.5	21.3284	0.522946
15090.7	21.3229	0.507215
15334.8	21.3174	0.491935
15582.8	21.3119	0.477094
15834.9	21.3064	0.462681
16091.0	21.3009	0.448684
16351.3	21.2953	0.435092
16615.7	21.2898	0.421894
16884.5	21.2843	0.409080
17157.6	21.2788	0.396639
17435.1	21.2733	0.384560
17717.1	21.2679	0.372835
18003.6	21.2624	0.361452
18294.8	21.2571	0.350404
18590.7	21.2517	0.339680
18891.4	21.2464	0.329272
19197.0	21.2411	0.319170
19507.5	21.2359	0.309367
19823.0	21.2307	0.299854
20143.6	21.2256	0.290623
20469.4	21.2205	0.281666
20800.5	21.2155	0.272975
21136.9	21.2106	0.264543
21478.8	21.2057	0.256362
21826.2	21.2008	0.248426
22179.2	21.1960	0.240727
22538.0	21.1913	0.233258
22902.5	21.1867	0.226014
23272.9	21.1821	0.218987
23649.3	21.1775	0.212171
24031.8	21.1731	0.205560
24420.5	21.1687	0.199149
24815.5	21.1643	0.192932
25216.9	21.1601	0.186902
25624.8	21.1558	0.181055
26039.2	21.1517	0.175385
26460.4	21.1476	0.169887
26888.4	21.1436	0.164557
27323.3	21.1397	0.159388
27765.2	21.1358	0.154377
28214.3	21.1320	0.149519
28670.6	21.1283	0.144809
29134.3	21.1246	0.140242
29605.6	21.1223	0.135816
30000.0	21.1168	0.132267
