E(eV)	f1	f2
1.00000	-9999.	0.187064
1.01486	-9999.	0.190511
1.02994	-9999.	0.194022
1.04524	-9999.	0.197598
1.06077	-9999.	0.201239
1.07653	-9999.	0.204991
1.09252	-9999.	0.208845
1.10875	-9999.	0.212770
1.12523	-9999.	0.216770
1.14195	-9999.	0.220845
1.15891	-9999.	0.224996
1.17613	-9999.	0.229225
1.19360	-9999.	0.233534
1.21134	-9999.	0.237924
1.22934	-9999.	0.242397
1.24760	-9999.	0.246953
1.26614	-9999.	0.251595
1.28495	-9999.	0.256324
1.30404	-9999.	0.261558
1.32341	-9999.	0.267735
1.34308	-9999.	0.274057
1.36303	-9999.	0.280529
1.38328	-9999.	0.287154
1.40383	-9999.	0.293935
1.42469	-9999.	0.300876
1.44586	-9999.	0.307981
1.46734	-9999.	0.315254
1.48914	-9999.	0.322698
1.51127	-9999.	0.330319
1.53372	-9999.	0.338119
1.55651	-9999.	0.346104
1.57963	-9999.	0.354277
1.60310	-9999.	0.362643
1.62692	-9999.	0.371106
1.65109	-9999.	0.379747
1.67562	-9999.	0.388588
1.70052	-9999.	0.397635
1.72578	-9999.	0.406892
1.75142	-9999.	0.416365
1.77744	-9999.	0.426059
1.80385	-9999.	0.435978
1.83065	-9999.	0.446129
1.85785	-9999.	0.456515
1.88546	-9999.	0.467144
1.91347	-9999.	0.478020
1.94190	-9999.	0.489149
1.97075	-9999.	0.500537
2.00003	-9999.	0.511518
2.02974	-9999.	0.522347
2.05990	-9999.	0.533405
2.09051	-9999.	0.544696
2.12157	-9999.	0.556227
2.15309	-9999.	0.568002
2.18508	-9999.	0.580026
2.21754	-9999.	0.592304
2.25049	-9999.	0.604843
2.28392	-9999.	0.617647
2.31786	-9999.	0.630721
2.35229	-9999.	0.644073
2.38724	-9999.	0.657707
2.42271	-9999.	0.671630
2.45871	-9999.	0.684788
2.49524	-9999.	0.696838
2.53231	-9999.	0.709100
2.56993	-9999.	0.721578
2.60812	-9999.	0.734275
2.64687	-9999.	0.747196
2.68619	-9999.	0.760345
2.72610	-9999.	0.773724
2.76660	-9999.	0.787340
2.80771	-9999.	0.801194
2.84942	-9999.	0.815293
2.89176	-9999.	0.829639
2.93472	-9999.	0.844238
2.97833	-9999.	0.859094
3.02258	-9999.	0.874211
3.06748	-9999.	0.889595
3.11306	-9999.	0.905249
3.15931	-9999.	0.921178
3.20625	-9999.	0.937388
3.25389	-9999.	0.953884
3.30223	-9999.	0.970668
3.35129	-9999.	0.987749
3.40108	-9999.	1.00329
3.45162	-9999.	1.01820
3.50290	-9999.	1.03333
3.55494	-9999.	1.04868
3.60776	-9999.	1.06426
3.66136	-9999.	1.08007
3.71576	-9999.	1.09612
3.77097	-9999.	1.11241
3.82699	-9999.	1.12893
3.88385	-9999.	1.14571
3.94156	-9999.	1.16273
4.00012	-9999.	1.18000
4.05955	-9999.	1.19754
4.11986	-9999.	1.21533
4.18107	-9999.	1.23338
4.24319	-9999.	1.25171
4.30624	-9999.	1.27031
4.37022	-9999.	1.28918
4.43515	-9999.	1.32117
4.50104	-9999.	1.35964
4.56791	-9999.	1.39922
4.63578	-9999.	1.43995
4.70466	-9999.	1.48188
4.77456	-9999.	1.52502
4.84549	-9999.	1.56941
4.91749	-9999.	1.61511
4.99055	-9999.	1.66212
5.06469	-9999.	1.71215
5.13994	-9999.	1.76908
5.21631	-9999.	1.82792
5.29381	-9999.	1.88870
5.37246	-9999.	1.95151
5.45228	-9999.	2.01641
5.53329	-9999.	2.08347
5.61550	-9999.	2.15275
5.69893	-9999.	2.22434
5.78360	-9999.	2.29831
5.86953	-9999.	2.37474
5.95674	-9999.	2.45371
6.04524	-9999.	2.53531
6.13506	-9999.	2.61962
6.22621	-9999.	2.69698
6.31871	-9999.	2.75883
6.41259	-9999.	2.82209
6.50787	-9999.	2.88681
6.60456	-9999.	2.95302
6.70268	-9999.	3.02074
6.80227	-9999.	3.09001
6.90333	-9999.	3.16087
7.00590	-9999.	3.23336
7.10999	-9999.	3.30751
7.21562	-9999.	3.38336
7.32283	-9999.	3.46095
7.43163	-9999.	3.54032
7.54204	-9999.	3.62151
7.65410	-9999.	3.69522
7.76782	-9999.	3.76019
7.88323	-9999.	3.82631
8.00035	-9999.	3.89359
8.11922	-9999.	3.96206
8.23985	-9999.	4.03172
8.36227	-9999.	4.10262
8.48651	-9999.	4.17475
8.61260	-9999.	4.23941
8.74056	-9999.	4.28244
8.87042	-9999.	4.32590
9.00221	-9999.	4.36981
9.13596	-9999.	4.41416
9.27170	-9999.	4.45896
9.40945	-9999.	4.50421
9.54925	-9999.	4.54993
9.69113	-9999.	4.59611
9.83512	-9999.	4.64276
9.98124	-9999.	4.68362
10.1295	-9999.	4.72345
10.2800	-9999.	4.76363
10.4328	-9999.	4.80414
10.5878	-9999.	4.84500
10.7451	-9999.	4.88620
10.9047	-9999.	4.92776
11.0667	-9999.	4.96966
11.2312	-9999.	5.00525
11.3980	-9999.	5.02611
11.5674	-9999.	5.04706
11.7392	-9999.	5.06809
11.9136	-9999.	5.08921
12.0907	-9999.	5.11042
12.2703	-9999.	5.10947
12.4526	-9999.	5.10224
12.6376	-9999.	5.09504
12.8254	-9999.	5.08783
13.0159	-9999.	5.08064
13.2093	-9999.	5.07346
13.4056	-9999.	5.06629
13.6047	-9999.	5.05021
13.8069	-9999.	4.97147
14.0120	-9999.	4.89396
14.2202	-9999.	4.81765
14.4315	-9999.	4.74254
14.6459	-9999.	4.66860
14.8635	-9999.	4.59580
15.0843	-9999.	4.49013
15.3084	-9999.	4.31258
15.5359	-9999.	4.14205
15.7667	-9999.	3.97826
16.0009	-9999.	3.82094
16.2387	-9999.	3.66985
16.4799	-9999.	3.52474
16.7248	-9999.	3.38536
16.9733	-9999.	3.25149
17.2254	-9999.	3.12292
17.4814	-9999.	2.99943
17.7411	-9999.	2.88082
18.0047	-9999.	2.76690
18.2722	-9999.	2.65749
18.5437	-9999.	2.55241
18.8192	-9999.	2.45147
19.0988	5.13449	2.35453
19.3825	5.04369	2.26143
19.6705	4.94569	2.17201
19.9628	4.84027	2.08612
20.2594	4.72704	2.00363
20.5604	4.60555	1.92440
20.8658	4.47513	1.84830
21.1758	4.33493	1.77521
21.4905	4.18381	1.70501
21.8098	4.01783	1.63759
22.1338	3.83530	1.57706
22.4626	3.64323	1.53539
22.7964	3.44648	1.49483
23.1351	3.23745	1.45534
23.4788	3.01219	1.41690
23.8276	2.76652	1.37946
24.1817	2.49525	1.34302
24.5409	2.19097	1.30754
24.9056	1.83983	1.27300
25.2756	1.43303	1.26328
25.6511	0.972209	1.26113
26.0322	0.364745	1.25899
26.4190	-0.386541	1.38976
26.8115	-1.60492	1.68359
27.2099	-2.60944	3.22237
27.6141	-2.25008	4.58631
28.0244	-1.82408	5.05101
28.4408	-1.78224	5.56277
28.8633	-1.68230	6.03228
29.2922	-1.63400	6.39680
29.7274	-1.65964	6.78335
30.1690	-1.72277	7.19325
30.6173	-1.81695	7.62792
31.0722	-1.99296	8.08886
31.5338	-2.25309	8.65881
32.0023	-2.48291	9.53423
32.4778	-2.54597	10.4982
32.9603	-2.48688	11.5596
33.4500	-2.26951	12.7283
33.9470	-1.83832	14.0152
34.4514	-1.01169	15.4322
34.9632	0.423102	16.4497
35.4827	1.79749	16.7706
36.0099	2.81072	17.0977
36.5449	3.89580	17.4313
37.0879	5.00310	17.4699
37.6389	5.94484	17.4896
38.1981	6.84816	17.5094
38.7656	7.77770	17.5292
39.3416	8.74361	17.4024
39.9261	9.62356	17.2006
40.5193	10.4440	17.0011
41.1213	11.2798	16.8040
41.7323	12.2055	16.5349
42.3523	13.0802	16.0378
42.9816	13.7828	15.5555
43.6202	14.4574	15.0878
44.2682	15.2493	14.6342
44.9259	16.0678	13.9075
45.5934	16.6049	12.9990
46.2708	16.9531	12.1498
46.9583	17.1914	11.3561
47.6560	17.3495	10.6143
48.3640	17.4469	9.92088
49.0826	17.4954	9.27279
49.8118	17.5055	8.66704
50.5519	17.4839	8.10086
51.3030	17.4373	7.57166
52.0652	17.3705	7.07704
52.8388	17.2891	6.61472
53.6238	17.1997	6.18261
54.4205	17.1100	5.76349
55.2291	16.9988	5.34567
56.0496	16.8565	4.95814
56.8824	16.7017	4.59871
57.7275	16.5377	4.26534
58.5852	16.3667	3.95613
59.4556	16.1908	3.66934
60.3390	16.0113	3.40334
61.2354	15.8296	3.15662
62.1452	15.6461	2.92778
63.0686	15.4618	2.71554
64.0056	15.2768	2.51868
64.9566	15.0914	2.33609
65.9216	14.9053	2.16674
66.9011	14.7180	2.00967
67.8950	14.5289	1.86398
68.9038	14.3201	1.72885
69.9275	14.1099	1.64583
70.9665	13.9386	1.57267
72.0208	13.7760	1.50277
73.0909	13.6205	1.43598
74.1768	13.4695	1.37215
75.2789	13.3206	1.31116
76.3973	13.1688	1.25288
77.5324	13.0138	1.21307
78.6843	12.8705	1.18447
79.8534	12.7362	1.15654
81.0398	12.6016	1.12928
82.2438	12.4697	1.12188
83.4658	12.3519	1.11494
84.7058	12.2408	1.10804
85.9644	12.1345	1.10119
87.2416	12.0318	1.09437
88.5377	11.9318	1.08739
89.8532	11.8335	1.08046
91.1882	11.7362	1.07357
92.5430	11.6389	1.06672
93.9179	11.5404	1.05992
95.3133	11.4352	1.05467
96.7294	11.3301	1.06483
98.1666	11.2350	1.07509
99.6251	11.1413	1.08545
101.105	11.0470	1.09591
102.607	10.9508	1.10842
104.132	10.8561	1.13213
105.679	10.7680	1.15635
107.249	10.6833	1.18109
108.843	10.6013	1.20636
110.460	10.5223	1.23217
112.101	10.4463	1.25742
113.766	10.3713	1.27867
115.457	10.2953	1.30028
117.172	10.2224	1.32225
118.913	10.1500	1.33782
120.680	10.0717	1.35198
122.473	9.99084	1.36628
124.292	9.90751	1.38074
126.139	9.82167	1.39535
128.013	9.73316	1.41011
129.915	9.64177	1.42503
131.845	9.54709	1.44011
133.804	9.44884	1.45561
135.792	9.34712	1.47207
137.810	9.24188	1.48871
139.857	9.13250	1.50554
141.935	9.01852	1.52256
144.044	8.89942	1.53977
146.184	8.77469	1.55718
148.356	8.64371	1.57478
150.560	8.50583	1.59258
152.797	8.36112	1.61059
155.067	8.20802	1.62680
157.371	8.04308	1.64154
159.709	7.86515	1.65641
162.082	7.67268	1.67141
164.490	7.46327	1.68655
166.934	7.23352	1.70182
169.414	6.97833	1.71724
171.931	6.68915	1.73279
174.486	6.34986	1.74848
176.293	6.00044	1.75953
178.776	5.65958	2.15126
181.432	5.41425	2.18213
184.128	4.95997	2.21345
186.863	4.41834	2.48950
189.640	3.94975	2.84521
192.457	3.57440	3.20582
195.317	3.16811	3.46668
198.219	2.39094	3.74876
201.164	1.56844	4.56748
204.152	1.02749	5.65136
207.186	0.858427	6.99245
210.264	1.18531	8.07342
213.388	1.66911	8.88459
216.558	2.02039	9.29434
219.776	2.19169	9.72296
223.041	2.25393	10.1714
226.355	2.27307	10.7262
229.718	2.33900	11.3758
233.131	2.44787	12.0646
236.595	2.63874	12.8901
240.110	3.10756	13.8079
243.677	3.84401	14.3512
247.298	4.45142	14.6251
250.972	4.83647	14.9043
254.701	5.19179	15.2519
258.485	5.57293	15.6166
262.325	5.96969	15.9900
266.223	6.46719	16.3646
270.178	6.97004	16.5783
274.192	7.38425	16.7947
278.266	7.82181	17.0140
282.400	8.24696	17.1245
286.596	8.59223	17.2159
290.854	8.86235	17.3077
295.175	9.02620	17.4106
299.561	9.18296	17.7415
304.012	9.44285	18.0788
308.529	9.82569	18.4224
313.112	10.2237	18.6037
317.764	10.4895	18.7493
322.486	10.5885	18.8960
327.277	10.6254	19.4502
332.139	10.9148	20.1610
337.074	11.4772	20.8977
342.082	12.4309	21.6613
347.165	13.5853	21.6984
352.323	14.4317	21.5390
357.557	15.0593	21.3808
362.870	15.5972	21.2237
368.261	16.0519	21.0678
373.732	16.3925	20.9131
379.285	16.6650	20.9336
384.920	17.0041	21.0207
390.639	17.4043	21.1081
396.443	17.8283	21.1959
402.333	18.3099	21.2840
408.311	18.8145	21.3021
414.377	19.2856	21.2919
420.534	19.7483	21.2818
426.782	20.2140	21.2716
433.123	20.6882	21.2615
439.558	21.2379	21.2514
446.088	21.7996	21.1108
452.716	22.2707	20.9280
459.442	22.7014	20.7467
466.268	23.0990	20.5671
473.196	23.4707	20.3980
480.226	23.8342	20.2504
487.361	24.1977	20.1038
494.602	24.5575	19.9583
501.951	24.9149	19.8138
509.409	25.2715	19.6705
516.977	25.6303	19.5281
524.658	25.9954	19.3867
532.453	26.3740	19.2464
540.364	26.8175	19.0898
548.392	27.2459	18.8048
556.540	27.5804	18.5240
564.809	27.8913	18.2474
573.200	28.1798	17.9750
581.717	28.4499	17.7066
590.359	28.7043	17.4423
599.131	28.9447	17.1819
608.032	29.1727	16.9253
617.066	29.3892	16.6726
626.234	29.5949	16.4237
635.538	29.7888	16.1785
644.981	29.9733	15.9434
654.564	30.1537	15.7134
664.289	30.3294	15.4868
674.158	30.4996	15.2635
684.174	30.6648	15.0433
694.340	30.8252	14.8264
704.656	30.9813	14.6125
715.125	31.1336	14.4018
725.750	31.2826	14.1941
736.533	31.4291	13.9894
747.476	31.5745	13.7876
758.581	31.7222	13.5888
769.852	31.8741	13.3806
781.290	32.0165	13.1621
792.898	32.1452	12.9472
804.678	32.2688	12.7358
816.634	32.3887	12.5279
828.767	32.5067	12.3234
841.080	32.6274	12.1222
853.576	32.7616	11.9233
866.258	32.8907	11.6746
879.129	32.9872	11.4312
892.190	33.0679	11.1927
905.446	33.1358	10.9593
918.898	33.1919	10.7307
932.551	33.2321	10.5069
946.406	33.2632	10.3090
960.467	33.3005	10.1191
974.737	33.3398	9.93277
989.219	33.3787	9.74983
1003.92	33.4177	9.57024
1018.83	33.4585	9.39397
1033.97	33.5104	9.21395
1049.33	33.5535	9.00815
1064.92	33.5689	8.80695
1080.74	33.5673	8.61024
1096.80	33.5520	8.44279
1113.10	33.5465	8.29281
1129.63	33.5529	8.14550
1146.42	33.5661	8.00081
1163.45	33.5829	7.84548
1180.74	33.5943	7.69067
1198.28	33.6136	7.53892
1216.08	33.6355	7.36979
1234.15	33.6390	7.18601
1252.49	33.6279	7.00681
1271.10	33.6120	6.82832
1289.98	33.5824	6.63951
1309.15	33.5253	6.45593
1328.60	33.4456	6.28390
1348.34	33.3621	6.15791
1368.37	33.2941	6.03440
1388.70	33.2288	5.91333
1409.33	33.1634	5.79462
1430.27	33.0967	5.67831
1451.52	33.0280	5.56448
1473.09	32.9570	5.45263
1494.97	32.8829	5.34284
1517.18	32.8051	5.23417
1539.73	32.7225	5.12763
1562.60	32.6350	5.02317
1585.82	32.5423	4.92083
1609.38	32.4437	4.82057
1633.29	32.3389	4.72255
1657.56	32.2274	4.62643
1682.18	32.1083	4.53214
1707.18	31.9809	4.43993
1732.54	31.8444	4.34950
1758.28	31.6974	4.25969
1784.41	31.5377	4.17149
1810.92	31.3636	4.08485
1837.82	31.1733	3.99998
1865.13	30.9640	3.91687
1892.84	30.7327	3.83555
1920.96	30.4751	3.75591
1949.50	30.1857	3.67792
1978.47	29.8567	3.60153
2000.	29.5841	3.54648
2026.	29.2165	3.48326
2052.	28.7953	3.41986
2079.	28.2813	3.35592
2106.	27.6587	3.29381
2134.	26.8395	3.23128
2161.	25.7634	3.17275
2190.	23.9117	3.11164
2218.	18.3423	3.05439
2222.20	8.21880	3.04595
2222.40	8.22078	11.4966
2247.	22.7924	11.2807
2277.	24.1749	11.0261
2306.	20.5713	10.7885
2306.60	18.0745	10.7837
2306.80	18.0818	14.8502
2337.	26.3744	14.5865
2367.	27.9197	14.3325
2398.	28.9696	14.0783
2429.	29.7293	13.8316
2461.	30.2895	13.5849
2493.	30.6012	13.3454
2526.	30.0697	13.1064
2531.50	27.7869	13.0672
2531.70	27.7908	14.9250
2559.	31.5603	14.7028
2592.	32.5026	14.4418
2626.	33.2011	14.1792
2660.	33.7723	13.9227
2695.	34.2760	13.6654
2730.	34.7180	13.4144
2766.	35.1224	13.1625
2802.	35.4854	12.9171
2839.	35.8228	12.6716
2876.	36.1297	12.4327
2914.	36.4171	12.1933
2952.	36.6799	11.9606
2990.	36.9216	11.7347
3029.	37.1499	11.5082
3069.	37.3655	11.2830
3109.	37.5641	11.0634
3150.	37.7520	10.8453
3191.	37.9259	10.6329
3232.	38.0866	10.4262
3275.	38.2424	10.2163
3317.	38.3834	10.0165
3361.	38.5197	9.81349
3405.	38.6463	9.61716
3449.	38.7638	9.42589
3494.	38.8746	9.23527
3540.	38.9794	9.04757
3586.	39.0764	8.86427
3633.	39.1678	8.68352
3680.	39.2527	8.50785
3729.	39.3343	8.33009
3777.	39.4080	8.16137
3827.	39.4787	7.99097
3877.	39.5438	7.82582
3927.	39.6038	7.66572
3979.	39.6611	7.50438
4031.	39.7137	7.34806
4083.	39.7618	7.19651
4137.	39.8075	7.04414
4191.	39.8492	6.89658
4245.	39.8872	6.75353
4301.	39.9230	6.60989
4357.	39.9554	6.47085
4414.	39.9851	6.33379
4472.	40.0123	6.19877
4530.	40.0367	6.06812
4589.	40.0588	5.93942
4649.	40.0787	5.81278
4710.	40.0965	5.68810
4771.	40.1121	5.56751
4834.	40.1259	5.44694
4897.	40.1377	5.33034
4961.	40.1478	5.21576
5026.	40.1562	5.10322
5091.	40.1630	4.99429
5158.	40.1684	4.88568
5225.	40.1722	4.78059
5294.	40.1746	4.67604
5363.	40.1758	4.57491
5433.	40.1758	4.47573
5504.	40.1745	4.37838
5576.	40.1722	4.28298
5649.	40.1688	4.18952
5722.	40.1644	4.09901
5797.	40.1589	4.00922
5873.	40.1526	3.92134
5950.	40.1455	3.83524
6027.	40.1377	3.75199
6106.	40.1289	3.66946
6186.	40.1195	3.58865
6267.	40.1094	3.50970
6349.	40.0986	3.43229
6432.	40.0871	3.35668
6516.	40.0751	3.28284
6601.	40.0626	3.21047
6687.	40.0496	3.13980
6774.	40.0360	3.07080
6863.	40.0219	3.00253
6952.	40.0076	2.93656
7043.	39.9926	2.87148
7135.	39.9773	2.80783
7229.	39.9615	2.74514
7323.	39.9456	2.68447
7419.	39.9291	2.62477
7516.	39.9125	2.56637
7614.	39.8955	2.50937
7713.	39.8782	2.45388
7814.	39.8606	2.39911
7916.	39.8428	2.34582
8019.	39.8249	2.29376
8124.	39.8065	2.24243
8230.	39.7879	2.19247
8338.	39.7690	2.14333
8447.	39.7500	2.09553
8557.	39.7309	2.04880
8669.	39.7115	2.00288
8782.	39.6919	1.95817
8897.	39.6720	1.91429
9013.	39.6520	1.87153
9131.	39.6318	1.82952
9250.	39.6114	1.78863
9371.	39.5908	1.74847
9494.	39.5699	1.70908
9618.	39.5489	1.67074
9743.	39.5278	1.63344
9887.76	39.5034	1.59183
10034.7	39.4788	1.55125
10183.8	39.4539	1.51169
10335.1	39.4286	1.47312
10488.6	39.4030	1.43551
10644.4	39.3771	1.39885
10802.6	39.3508	1.36310
10963.1	39.3240	1.32825
11126.0	39.2969	1.29428
11291.3	39.2692	1.26116
11459.0	39.2410	1.22887
11629.3	39.2123	1.19739
11802.1	39.1829	1.16670
11977.4	39.1529	1.13678
12155.4	39.1221	1.10762
12336.0	39.0905	1.07918
12519.2	39.0580	1.05147
12705.2	39.0244	1.02444
12894.0	38.9898	0.998102
13085.6	38.9538	0.972422
13280.0	38.9165	0.947387
13477.3	38.8775	0.922981
13677.5	38.8368	0.899189
13880.8	38.7940	0.875995
14087.0	38.7488	0.853384
14296.3	38.7010	0.831341
14508.7	38.6501	0.809851
14724.3	38.5956	0.788901
14943.0	38.5368	0.768477
15165.0	38.4729	0.748566
15390.3	38.4029	0.729155
15619.0	38.3255	0.710230
15851.1	38.2389	0.691780
16086.6	38.1404	0.673793
16325.6	38.0266	0.656256
16568.1	37.8918	0.639158
16814.3	37.7275	0.622488
17064.1	37.5180	0.606236
17317.6	37.2322	0.590390
17574.9	36.7916	0.574939
17836.1	35.8632	0.559875
17995.8	28.3833	0.550960
17996.0	28.3835	3.75925
18101.1	35.5338	3.72566
18370.0	36.8921	3.64188
18642.9	37.4953	3.55948
18919.9	37.8923	3.47847
19201.0	38.1892	3.39885
19486.3	38.4259	3.32063
19775.8	38.6221	3.24380
20069.6	38.7890	3.16835
20367.8	38.9335	3.09429
20670.4	39.0604	3.02161
20977.5	39.1728	2.95030
21289.2	39.2733	2.88036
21605.5	39.3636	2.81177
21926.5	39.4452	2.74453
22252.3	39.5192	2.67862
22582.9	39.5865	2.61403
22918.4	39.6480	2.55075
23258.9	39.7041	2.48877
23604.5	39.7556	2.42807
23955.2	39.8028	2.36864
24311.1	39.8460	2.31046
24672.3	39.8858	2.25351
25038.9	39.9223	2.19778
25410.9	39.9559	2.14326
25788.4	39.9868	2.08992
26171.6	40.0151	2.03775
26560.4	40.0411	1.98672
26955.0	40.0650	1.93684
27355.5	40.0869	1.88806
27761.9	40.1069	1.84039
28174.4	40.1252	1.79379
28593.0	40.1419	1.74825
29017.8	40.1571	1.70376
29448.9	40.1709	1.66029
29886.5	40.1834	1.61783
30000.0	40.1864	1.60707
